# Optical absorption spectrum of Acridine orange in basic ethanol
#
# Data from PhotochemCAD 2.1a has been munged on  2 June 2017 by Scott Prahl to make
# the information available to non-Windows users.  Although I have tried to be as careful
# as possible, I may have introduced some error; the cautious user is advised to compare
# these results with the original sources at www.photochemcad.com:
#
# H. Du, R. A. Fuh, J. Li, A. Corkan, J. S. Lindsey, "PhotochemCAD: A computer-aided design
#     and research tool in photochemistry," Photochem. Photobiol., 68, 141-142, 1998. 
# J. M. Dixon, M. Taniguchi and J. S. Lindsey "PhotochemCAD 2. A refined program with accompanying 
#     spectral databases for photochemical calculations", Photochem. Photobiol., 81, 212-213, 2005.
#
# The spectral absorption measurements were made by R.-C. A. Fuh in the summer of 1995 using a Cary 3.  
# The absorption values were collected using a spectral bandwidth of 1.0 nm, a signal averaging time of 0.133 sec, a data interval of 0.25 nm, and a scan rate of 112.5 nm/min.
#
# These measurements were scaled to make the molar extinction coefficient match
# the value of 27000 cm-1/M at 430.8 nm.  These values were 
# then interpolated to report extinction coefficients at regular 1nm intervals
#
# The reported molar extinction coefficient is from
# Ferguson, J. and A. W. H. Mau (1972) Absorption studies of acid-base equilibria of dye solutions.  Chem. Phys. Lett. 17, 543-546.
#
##Wavelength (nm)	Molar Extinction (cm-1/M) 
219.75	17234
220	17538
220.25	17205
220.5	17542
220.75	17473
221	17383
221.25	17453
221.5	17149
221.75	17336
222	16994
222.25	16946
222.5	16721
222.75	16503
223	16281
223.25	16185
223.5	15893
223.75	15687
224	15457
224.25	15187
224.5	15138
224.75	14819
225	14726
225.25	14517
225.5	14398
225.75	14152
226	14008
226.25	13894
226.5	13838
226.75	13688
227	13627
227.25	13478
227.5	13407
227.75	13317
228	13288
228.25	13179
228.5	13183
228.75	13049
229	12963
229.25	12864
229.5	12901
229.75	12863
230	12783
230.25	12747
230.5	12642
230.75	12609
231	12609
231.25	12633
231.5	12552
231.75	12553
232	12475
232.25	12455
232.5	12440
232.75	12455
233	12374
233.25	12405
233.5	12421
233.75	12462
234	12421
234.25	12470
234.5	12484
234.75	12598
235	12674
235.25	12667
235.5	12789
235.75	12828
236	12958
236.25	13012
236.5	13117
236.75	13235
237	13326
237.25	13424
237.5	13670
237.75	13760
238	13844
238.25	14032
238.5	14175
238.75	14296
239	14510
239.25	14630
239.5	14786
239.75	15061
240	15223
240.25	15407
240.5	15563
240.75	15838
241	16037
241.25	16227
241.5	16502
241.75	16739
242	16927
242.25	17135
242.5	17365
242.75	17597
243	17875
243.25	18125
243.5	18459
243.75	18706
244	18923
244.25	19188
244.5	19495
244.75	19778
245	19923
245.25	20268
245.5	20630
245.75	20947
246	21171
246.25	21554
246.5	21783
246.75	22105
247	22384
247.25	22694
247.5	23005
247.75	23371
248	23674
248.25	24002
248.5	24373
248.75	24708
249	25031
249.25	25286
249.5	25636
249.75	26001
250	26267
250.25	26695
250.5	26947
250.75	27364
251	27649
251.25	27947
251.5	28310
251.75	28603
252	29053
252.25	29299
252.5	29705
252.75	30092
253	30474
253.25	30827
253.5	31198
253.75	31517
254	31885
254.25	32250
254.5	32600
254.75	32768
255	32826
255.25	33266
255.5	33735
255.75	34058
256	34390
256.25	34682
256.5	35129
256.75	35393
257	35843
257.25	36157
257.5	36446
257.75	36774
258	37087
258.25	37474
258.5	37862
258.75	37972
259	38279
259.25	38698
259.5	38880
259.75	39207
260	39519
260.25	39793
260.5	40179
260.75	40034
261	40551
261.25	40912
261.5	41169
261.75	41369
262	41713
262.25	41800
262.5	42269
262.75	42459
263	42575
263.25	42788
263.5	43052
263.75	43381
264	43607
264.25	43861
264.5	44176
264.75	44397
265	44730
265.25	44897
265.5	45277
265.75	45597
266	45861
266.25	45888
266.5	46185
266.75	46540
267	46832
267.25	47181
267.5	47403
267.75	47612
268	47842
268.25	47969
268.5	48182
268.75	48086
269	48581
269.25	48671
269.5	48687
269.75	48843
270	48927
270.25	48951
270.5	49138
270.75	49107
271	49107
271.25	48823
271.5	48850
271.75	48904
272	48827
272.25	48401
272.5	48288
272.75	47872
273	47658
273.25	47429
273.5	46963
273.75	46707
274	46221
274.25	45866
274.5	45349
274.75	44688
275	44249
275.25	43618
275.5	42944
275.75	42500
276	41641
276.25	41035
276.5	40539
276.75	40041
277	39254
277.25	38840
277.5	38303
277.75	37782
278	37246
278.25	36824
278.5	36403
278.75	35808
279	35295
279.25	34877
279.5	34642
279.75	34228
280	33756
280.25	33398
280.5	32958
280.75	32828
281	32469
281.25	32269
281.5	31864
281.75	31810
282	31644
282.25	31346
282.5	31147
282.75	31119
283	30919
283.25	30865
283.5	30768
283.75	30543
284	30549
284.25	30501
284.5	30440
284.75	30472
285	30483
285.25	30499
285.5	30474
285.75	30575
286	30521
286.25	30687
286.5	30706
286.75	30825
287	30893
287.25	31039
287.5	31281
287.75	31403
288	31545
288.25	31756
288.5	32100
288.75	32269
289	32445
289.25	32737
289.5	33055
289.75	33450
290	33759
290.25	34072
290.5	34380
290.75	34788
291	35072
291.25	35756
291.5	36167
291.75	36715
292	37038
292.25	37509
292.5	38026
292.75	38405
293	39065
293.25	39414
293.5	39970
293.75	40345
294	40718
294.25	41187
294.5	41580
294.75	41718
295	41918
295.25	42452
295.5	42790
295.75	43263
296	43539
296.25	43889
296.5	44292
296.75	44828
297	44750
297.25	45012
297.5	45057
297.75	45306
298	45082
298.25	45442
298.5	45361
298.75	45360
299	45339
299.25	45286
299.5	45205
299.75	45194
300	45057
300.25	45045
300.5	45191
300.75	45226
301	45165
301.25	45070
301.5	45182
301.75	45191
302	45351
302.25	45326
302.5	45490
302.75	45495
303	45780
303.25	46026
303.5	46126
303.75	46651
304	46761
304.25	47002
304.5	46910
304.75	47374
305	47731
305.25	48049
305.5	47905
305.75	48165
306	48114
306.25	48252
306.5	48450
306.75	48578
307	48634
307.25	48302
307.5	48112
307.75	47928
308	47559
308.25	47000
308.5	46485
308.75	45723
309	44965
309.25	44292
309.5	43525
309.75	41610
310	40509
310.25	39703
310.5	38339
310.75	36894
311	35458
311.25	34460
311.5	32230
311.75	31243
312	29516
312.25	27867
312.5	26052
312.75	24733
313	23659
313.25	21829
313.5	20400
313.75	19009
314	17779
314.25	16716
314.5	15486
314.75	14433
315	12889
315.25	11660
315.5	10735
315.75	9825
316	8920
316.25	8165
316.5	7695
316.75	7148
317	6477
317.25	6131
317.5	5779
317.75	5148
318	5130
318.25	4824
318.5	4529
318.75	4220
319	4079
319.25	3861
319.5	3544
319.75	3445
320	3441
320.25	3107
320.5	2968
320.75	3054
321	2791
321.25	2869
321.5	2620
321.75	2670
322	2299
322.25	2577
322.5	2418
322.75	2261
323	2332
323.25	2240
323.5	2339
323.75	2163
324	2110
324.25	2123
324.5	1956
324.75	2041
325	2066
325.25	2079
325.5	1910
325.75	1813
326	1738
326.25	1763
326.5	1736
326.75	1732
327	1812
327.25	1840
327.5	1768
327.75	1721
328	1699
328.25	1697
328.5	1678
328.75	1634
329	1547
329.25	1561
329.5	1589
329.75	1710
330	1481
330.25	1416
330.5	1713
330.75	1508
331	1464
331.25	1499
331.5	1575
331.75	1332
332	1527
332.25	1513
332.5	1493
332.75	1507
333	1423
333.25	1473
333.5	1483
333.75	1568
334	1423
334.25	1465
334.5	1483
334.75	1567
335	1423
335.25	1414
335.5	1190
335.75	1484
336	1473
336.25	1451
336.5	1349
336.75	1498
337	1520
337.25	1491
337.5	1398
337.75	1326
338	1453
338.25	1500
338.5	1504
338.75	1430
339	1446
339.25	1513
339.5	1560
339.75	1449
340	1572
340.25	1427
340.5	1481
340.75	1507
341	1353
341.25	1658
341.5	1447
341.75	1508
342	1604
342.25	1525
342.5	1557
342.75	1446
343	1572
343.25	1505
343.5	1607
343.75	1514
344	1619
344.25	1486
344.5	1573
344.75	1507
345	1460
345.25	1644
345.5	1556
345.75	1600
346	1564
346.25	1668
346.5	1705
346.75	1669
347	1648
347.25	1619
347.5	1665
347.75	1708
348	1698
348.25	1671
348.5	1712
348.75	1709
349	1766
349.25	1742
349.5	1717
349.75	1783
350	1809
350.25	1874
350.5	1892
350.75	1947
351	1908
351.25	1874
351.5	1958
351.75	1922
352	1921
352.25	1926
352.5	2028
352.75	1982
353	1939
353.25	2089
353.5	2188
353.75	2053
354	2041
354.25	2068
354.5	2160
354.75	2154
355	2196
355.25	2142
355.5	2232
355.75	2246
356	2359
356.25	2272
356.5	2362
356.75	2406
357	2372
357.25	2406
357.5	2428
357.75	2515
358	2553
358.25	2590
358.5	2586
358.75	2554
359	2602
359.25	2558
359.5	2616
359.75	2735
360	2694
360.25	2687
360.5	2716
360.75	2826
361	2833
361.25	2865
361.5	2946
361.75	2967
362	2996
362.25	2956
362.5	3022
362.75	2925
363	3086
363.25	3141
363.5	3164
363.75	3125
364	3129
364.25	3290
364.5	3249
364.75	3239
365	3294
365.25	3361
365.5	3513
365.75	3489
366	3560
366.25	3677
366.5	3594
366.75	3601
367	3576
367.25	3561
367.5	3669
367.75	3790
368	3766
368.25	3795
368.5	3944
368.75	3984
369	3990
369.25	4017
369.5	4142
369.75	4101
370	4162
370.25	4179
370.5	4312
370.75	4367
371	4316
371.25	4425
371.5	4432
371.75	4542
372	4497
372.25	4584
372.5	4620
372.75	4654
373	4751
373.25	4790
373.5	4802
373.75	4955
374	4899
374.25	4884
374.5	4956
374.75	5046
375	4989
375.25	5163
375.5	5079
375.75	5201
376	5358
376.25	5367
376.5	5426
376.75	5481
377	5561
377.25	5705
377.5	5659
377.75	5751
378	5758
378.25	5894
378.5	5926
378.75	6064
379	6072
379.25	6217
379.5	6241
379.75	6291
380	6402
380.25	6409
380.5	6526
380.75	6527
381	6610
381.25	6682
381.5	6806
381.75	6805
382	6827
382.25	6957
382.5	7052
382.75	7109
383	7277
383.25	7253
383.5	7373
383.75	7445
384	7423
384.25	7582
384.5	7678
384.75	7710
385	7819
385.25	7929
385.5	7951
385.75	8073
386	8110
386.25	8214
386.5	8300
386.75	8360
387	8475
387.25	8515
387.5	8573
387.75	8696
388	8835
388.25	8868
388.5	8980
388.75	9045
389	9234
389.25	9239
389.5	9354
389.75	9422
390	9473
390.25	9583
390.5	9792
390.75	9842
391	9924
391.25	9997
391.5	10119
391.75	10254
392	10260
392.25	10336
392.5	10524
392.75	10696
393	10677
393.25	10796
393.5	10974
393.75	11028
394	11163
394.25	11151
394.5	11265
394.75	11378
395	11466
395.25	11598
395.5	11714
395.75	11940
396	11929
396.25	12242
396.5	12327
396.75	12378
397	12507
397.25	12545
397.5	12717
397.75	12827
398	12943
398.25	13059
398.5	13180
398.75	13294
399	13476
399.25	13512
399.5	13678
399.75	13736
400	13822
400.25	13924
400.5	14079
400.75	14169
401	14323
401.25	14398
401.5	14502
401.75	14702
402	14797
402.25	14876
402.5	15016
402.75	15244
403	15323
403.25	15333
403.5	15481
403.75	15624
404	15734
404.25	15879
404.5	15964
404.75	16075
405	16149
405.25	16348
405.5	16401
405.75	16570
406	16637
406.25	16793
406.5	16957
406.75	17137
407	17229
407.25	17338
407.5	17422
407.75	17645
408	17638
408.25	17844
408.5	17980
408.75	17979
409	18272
409.25	18256
409.5	18444
409.75	18523
410	18669
410.25	18943
410.5	18880
410.75	19094
411	19097
411.25	19418
411.5	19423
411.75	19528
412	19663
412.25	19830
412.5	19961
412.75	20056
413	20071
413.25	20300
413.5	20291
413.75	20549
414	20571
414.25	20789
414.5	20847
414.75	20827
415	20999
415.25	21102
415.5	21326
415.75	21301
416	21468
416.25	21689
416.5	21760
416.75	21816
417	21920
417.25	21976
417.5	22145
417.75	22288
418	22537
418.25	22426
418.5	22632
418.75	22765
419	22869
419.25	23083
419.5	23203
419.75	23340
420	23394
420.25	23596
420.5	23591
420.75	23742
421	23859
421.25	24045
421.5	24174
421.75	24202
422	24349
422.25	24408
422.5	24617
422.75	24686
423	24767
423.25	24918
423.5	25101
423.75	25110
424	25149
424.25	25283
424.5	25399
424.75	25482
425	25535
425.25	25612
425.5	25684
425.75	25878
426	25897
426.25	25866
426.5	26053
426.75	26186
427	26232
427.25	26248
427.5	26435
427.75	26422
428	26502
428.25	26579
428.5	26500
428.75	26671
429	26615
429.25	26792
429.5	26758
429.75	26810
430	26888
430.25	26797
430.5	26821
430.75	27000
431	26900
431.25	26914
431.5	26938
431.75	26870
432	26897
432.25	26795
432.5	26783
432.75	26781
433	26672
433.25	26728
433.5	26569
433.75	26588
434	26488
434.25	26478
434.5	26422
434.75	26331
435	26256
435.25	26165
435.5	25982
435.75	25899
436	25765
436.25	25608
436.5	25437
436.75	25378
437	25235
437.25	25077
437.5	25017
437.75	24812
438	24664
438.25	24528
438.5	24393
438.75	24167
439	24089
439.25	23903
439.5	23793
439.75	23565
440	23324
440.25	23176
440.5	22980
440.75	22933
441	22531
441.25	22471
441.5	22221
441.75	22021
442	21834
442.25	21515
442.5	21336
442.75	21205
443	20944
443.25	20810
443.5	20541
443.75	20321
444	20118
444.25	19846
444.5	19604
444.75	19408
445	19243
445.25	19024
445.5	18716
445.75	18497
446	18300
446.25	18068
446.5	17776
446.75	17629
447	17401
447.25	17135
447.5	17006
447.75	16759
448	16504
448.25	16276
448.5	16042
448.75	15869
449	15597
449.25	15448
449.5	15220
449.75	14908
450	14658
450.25	14506
450.5	14282
450.75	14175
451	13936
451.25	13722
451.5	13487
451.75	13366
452	13090
452.25	12910
452.5	12779
452.75	12590
453	12281
453.25	12120
453.5	11918
453.75	11825
454	11620
454.25	11498
454.5	11351
454.75	11225
455	11141
455.25	10931
455.5	10745
455.75	10542
456	10427
456.25	10277
456.5	10132
456.75	9875
457	9768
457.25	9693
457.5	9508
457.75	9375
458	9209
458.25	9052
458.5	8953
458.75	8754
459	8690
459.25	8557
459.5	8399
459.75	8302
460	8079
460.25	7987
460.5	7852
460.75	7773
461	7673
461.25	7514
461.5	7398
461.75	7366
462	7233
462.25	7108
462.5	7017
462.75	6944
463	6844
463.25	6695
463.5	6603
463.75	6522
464	6415
464.25	6318
464.5	6252
464.75	6123
465	6034
465.25	6001
465.5	5900
465.75	5827
466	5660
466.25	5674
466.5	5590
466.75	5457
467	5444
467.25	5297
467.5	5294
467.75	5177
468	5131
468.25	5052
468.5	4942
468.75	4949
469	4879
469.25	4804
469.5	4756
469.75	4646
470	4561
470.25	4516
470.5	4444
470.75	4379
471	4290
471.25	4257
471.5	4235
471.75	4145
472	4068
472.25	4023
472.5	3927
472.75	3897
473	3836
473.25	3805
473.5	3721
473.75	3641
474	3637
474.25	3506
474.5	3519
474.75	3421
475	3390
475.25	3350
475.5	3296
475.75	3223
476	3154
476.25	3121
476.5	3061
476.75	2942
477	2934
477.25	2874
477.5	2885
477.75	2822
478	2758
478.25	2695
478.5	2631
478.75	2603
479	2559
479.25	2498
479.5	2537
479.75	2451
480	2457
480.25	2379
480.5	2358
480.75	2298
481	2329
481.25	2271
481.5	2186
481.75	2239
482	2141
482.25	2106
482.5	2049
482.75	2056
483	1977
483.25	2002
483.5	1935
483.75	1946
484	1884
484.25	1870
484.5	1860
484.75	1745
485	1814
485.25	1731
485.5	1737
485.75	1688
486	1658
486.25	1656
486.5	1549
486.75	1554
487	1502
487.25	1529
487.5	1478
487.75	1442
488	1457
488.25	1451
488.5	1483
488.75	1378
489	1327
489.25	1365
489.5	1331
489.75	1349
490	1267
490.25	1276
490.5	1264
490.75	1162
491	1227
491.25	1100
491.5	1233
491.75	1156
492	1113
492.25	1134
492.5	1094
492.75	1099
493	1024
493.25	1078
493.5	1077
493.75	1057
494	1019
494.25	1051
494.5	968
494.75	1035
495	1044
495.25	975
495.5	928
495.75	936
496	906
496.25	922
496.5	889
496.75	936
497	856
497.25	891
497.5	833
497.75	858
498	800
498.25	857
498.5	842
498.75	795
499	780
499.25	797
499.5	784
499.75	745
500	777
500.25	751
500.5	773
500.75	707
501	654
501.25	722
501.5	686
501.75	671
502	678
502.25	687
502.5	772
502.75	642
503	660
503.25	636
503.5	616
503.75	604
504	642
504.25	616
504.5	536
504.75	579
505	524
505.25	532
505.5	595
505.75	542
506	577
506.25	520
506.5	551
506.75	505
507	574
507.25	540
507.5	494
507.75	513
508	483
508.25	534
508.5	502
508.75	443
509	484
509.25	462
509.5	493
509.75	470
510	446
510.25	472
510.5	476
510.75	503
511	434
511.25	432
511.5	420
511.75	442
512	430
512.25	442
512.5	455
512.75	434
513	385
513.25	381
513.5	419
513.75	459
514	377
514.25	344
514.5	382
514.75	459
515	353
515.25	456
515.5	361
515.75	377
516	401
516.25	330
516.5	295
516.75	301
517	380
517.25	317
517.5	313
517.75	297
518	283
518.25	347
518.5	258
518.75	374
519	270
519.25	350
519.5	331
519.75	259
520	310
520.25	281
520.5	324
520.75	240
521	254
521.25	265
521.5	252
521.75	288
522	261
522.25	248
522.5	254
522.75	297
523	217
523.25	247
523.5	286
523.75	289
524	281
524.25	163
524.5	289
524.75	250
525	252
525.25	276
525.5	210
525.75	266
526	226
526.25	309
526.5	217
526.75	282
527	239
527.25	205
527.5	223
527.75	211
528	257
528.25	264
528.5	238
528.75	167
529	196
529.25	215
529.5	228
529.75	244
530	202
530.25	209
530.5	205
530.75	188
531	164
531.25	178
531.5	215
531.75	160
532	221
532.25	208
532.5	287
532.75	225
533	166
533.25	181
533.5	130
533.75	238
534	149
534.25	210
534.5	227
534.75	214
535	221
535.25	166
535.5	172
535.75	200
536	189
536.25	153
536.5	166
536.75	178
537	190
537.25	192
537.5	142
537.75	161
538	172
538.25	164
538.5	214
538.75	168
539	214
539.25	185
539.5	181
539.75	142
540	133
540.25	220
540.5	175
540.75	190
541	194
541.25	173
541.5	183
541.75	109
542	163
542.25	81
542.5	182
542.75	127
543	188
543.25	181
543.5	173
543.75	172
544	84
544.25	164
544.5	164
544.75	223
545	102
545.25	145
545.5	217
545.75	135
546	181
546.25	151
546.5	118
546.75	171
547	177
547.25	212
547.5	111
547.75	179
548	53
548.25	118
548.5	177
548.75	132
549	154
549.25	170
549.5	202
549.75	107
550	147
550.25	119
550.5	120
550.75	223
551	124
551.25	216
551.5	168
551.75	253
552	140
552.25	133
552.5	160
552.75	169
553	169
553.25	114
553.5	168
553.75	154
554	101
554.25	148
554.5	216
554.75	180
555	117
555.25	143
555.5	99
555.75	170
556	168
556.25	112
556.5	191
556.75	223
557	99
557.25	134
557.5	74
557.75	164
558	60
558.25	142
558.5	60
558.75	122
559	110
559.25	121
559.5	171
559.75	137
560	114
560.25	84
560.5	184
560.75	120
561	125
561.25	108
561.5	101
561.75	107
562	4
562.25	184
562.5	116
562.75	122
563	129
563.25	63
563.5	232
563.75	93
564	78
564.25	111
564.5	53
564.75	137
565	72
565.25	129
565.5	95
565.75	197
566	133
566.25	105
566.5	75
566.75	122
567	177
567.25	74
567.5	154
567.75	95
568	183
568.25	66
568.5	38
568.75	173
569	155
569.25	169
569.5	98
569.75	111
570	148
570.25	168
570.5	77
570.75	151
571	73
571.25	99
571.5	171
571.75	147
572	96
572.25	61
572.5	147
572.75	60
573	73
573.25	93
573.5	99
573.75	145
574	115
574.25	132
574.5	80
574.75	128
575	87
575.25	46
575.5	107
575.75	120
576	106
576.25	86
576.5	152
576.75	168
577	92
577.25	125
577.5	115
577.75	119
578	90
578.25	125
578.5	61
578.75	99
579	102
579.25	50
579.5	64
579.75	73
580	120
580.25	158
580.5	68
580.75	99
581	81
581.25	116
581.5	46
581.75	115
582	49
582.25	98
582.5	163
582.75	87
583	126
583.25	95
583.5	130
583.75	96
584	125
584.25	63
584.5	114
584.75	157
585	112
585.25	145
585.5	74
585.75	93
586	76
586.25	55
586.5	97
586.75	36
587	131
587.25	111
587.5	126
587.75	120
588	147
588.25	98
588.5	76
588.75	109
589	76
589.25	139
589.5	66
589.75	69
590	118
590.25	140
590.5	132
590.75	173
591	179
591.25	58
591.5	90
591.75	132
592	76
592.25	118
592.5	72
592.75	177
593	96
593.25	65
593.5	108
593.75	60
594	176
594.25	99
594.5	114
594.75	115
595	123
595.25	110
595.5	35
595.75	67
596	90
596.25	106
596.5	88
596.75	113
597	112
597.25	135
597.5	114
597.75	41
598	156
598.25	95
598.5	122
598.75	133
599	114
599.25	117
599.5	45
599.75	109
600	82
600.25	78
600.5	128
600.75	41
601	91
601.25	95
601.5	135
601.75	91
602	153
602.25	85
602.5	121
602.75	84
603	99
603.25	104
603.5	35
603.75	80
604	59
604.25	91
604.5	102
604.75	125
605	152
605.25	84
605.5	82
605.75	92
606	99
606.25	107
606.5	93
606.75	102
607	123
607.25	59
607.5	63
607.75	86
608	85
608.25	68
608.5	100
608.75	105
609	152
609.25	116
609.5	43
609.75	58
610	46
610.25	124
610.5	35
610.75	30
611	81
611.25	87
611.5	115
611.75	-1
612	91
612.25	81
612.5	82
612.75	32
613	48
613.25	119
613.5	80
613.75	15
614	56
614.25	78
614.5	106
614.75	84
615	97
615.25	42
615.5	156
615.75	52
616	50
616.25	-10
616.5	109
616.75	85
617	88
617.25	42
617.5	85
617.75	27
618	25
618.25	27
618.5	50
618.75	79
619	132
619.25	33
619.5	53
619.75	-5
620	97
620.25	67
620.5	56
620.75	47
621	71
621.25	84
621.5	19
621.75	72
622	89
622.25	59
622.5	83
622.75	60
623	80
623.25	80
623.5	127
623.75	112
624	48
624.25	64
624.5	80
624.75	78
625	111
625.25	83
625.5	71
625.75	61
626	58
626.25	49
626.5	180
626.75	20
627	100
627.25	64
627.5	92
627.75	71
628	62
628.25	79
628.5	41
628.75	83
629	46
629.25	45
629.5	32
629.75	61
630	49
630.25	-3
630.5	95
630.75	83
631	63
631.25	47
631.5	46
631.75	59
632	47
632.25	84
632.5	28
632.75	18
633	58
633.25	22
633.5	83
633.75	25
634	48
634.25	26
634.5	77
634.75	88
635	74
635.25	42
635.5	75
635.75	119
636	21
636.25	67
636.5	-3
636.75	93
637	33
637.25	36
637.5	79
637.75	28
638	149
638.25	52
638.5	22
638.75	22
639	94
639.25	76
639.5	65
639.75	88
640	61
640.25	-24
640.5	32
640.75	74
641	67
641.25	88
641.5	82
641.75	13
642	36
642.25	69
642.5	71
642.75	96
643	45
643.25	129
643.5	59
643.75	110
644	50
644.25	1
644.5	102
644.75	-16
645	23
645.25	88
645.5	127
645.75	93
646	23
646.25	87
646.5	9
646.75	91
647	66
647.25	69
647.5	89
647.75	56
648	113
648.25	42
648.5	68
648.75	95
649	62
649.25	109
649.5	48
649.75	127
650	25
650.25	122
650.5	-4
650.75	56
651	49
651.25	91
651.5	95
651.75	32
652	104
652.25	25
652.5	-12
652.75	90
653	116
653.25	69
653.5	84
653.75	111
654	46
654.25	129
654.5	60
654.75	35
655	42
655.25	57
655.5	92
655.75	56
656	89
656.25	78
656.5	88
656.75	113
657	27
657.25	97
657.5	49
657.75	119
658	26
658.25	39
658.5	52
658.75	67
659	70
659.25	8
659.5	97
659.75	78
660	43
660.25	63
660.5	61
660.75	107
661	52
661.25	111
661.5	46
661.75	13
662	100
662.25	12
662.5	80
662.75	68
663	40
663.25	8
663.5	44
663.75	42
664	28
664.25	86
664.5	26
664.75	47
665	53
665.25	65
665.5	36
665.75	51
666	108
666.25	3
666.5	22
666.75	43
667	26
667.25	47
667.5	46
667.75	46
668	16
668.25	59
668.5	12
668.75	58
669	14
669.25	60
669.5	54
669.75	8
670	69
670.25	14
670.5	63
670.75	2
671	59
671.25	33
671.5	7
671.75	6
672	-3
672.25	-19
672.5	4
672.75	2
673	38
673.25	30
673.5	34
673.75	-32
674	48
674.25	-1
674.5	14
674.75	27
675	44
675.25	47
675.5	15
675.75	70
676	43
676.25	36
676.5	6
676.75	13
677	23
677.25	-28
677.5	22
677.75	17
678	78
678.25	-53
678.5	-3
678.75	-4
679	11
679.25	12
679.5	31
679.75	12
680	7
680.25	23
680.5	-1
680.75	37
681	43
681.25	3
681.5	46
681.75	29
682	22
682.25	6
682.5	1
682.75	-11
683	50
683.25	36
683.5	27
683.75	-2
684	28
684.25	16
684.5	34
684.75	38
685	2
685.25	25
685.5	35
685.75	82
686	37
686.25	62
686.5	50
686.75	44
687	24
687.25	-42
687.5	77
687.75	26
688	116
688.25	42
688.5	50
688.75	30
689	21
689.25	16
689.5	-52
689.75	46
690	45
690.25	61
690.5	28
690.75	24
691	84
691.25	6
691.5	55
691.75	13
692	39
692.25	-22
692.5	43
692.75	60
693	-11
693.25	21
693.5	15
693.75	48
694	37
694.25	31
694.5	21
694.75	21
695	15
695.25	2
695.5	53
695.75	13
696	-15
696.25	37
696.5	43
696.75	34
697	18
697.25	63
697.5	51
697.75	60
698	47
698.25	80
698.5	86
698.75	32
699	77
699.25	16
699.5	1
699.75	66
700	101
700.25	80
700.5	44
700.75	98
701	23
701.25	27
701.5	0
701.75	0
702	109
702.25	12
702.5	100
702.75	31
703	49
703.25	48
703.5	32
703.75	40
704	50
704.25	107
704.5	16
704.75	81
705	40
705.25	44
705.5	46
705.75	29
706	60
706.25	62
706.5	78
706.75	87
707	88
707.25	94
707.5	73
707.75	88
708	74
708.25	22
708.5	32
708.75	92
709	85
709.25	8
709.5	32
709.75	40
710	61
710.25	93
710.5	27
710.75	91
711	60
711.25	51
711.5	25
711.75	78
712	64
712.25	64
712.5	80
712.75	52
713	111
713.25	36
713.5	117
713.75	87
714	95
714.25	50
714.5	81
714.75	141
715	49
715.25	105
715.5	48
715.75	26
716	63
716.25	55
716.5	55
716.75	23
717	104
717.25	49
717.5	25
717.75	83
718	77
718.25	101
718.5	2
718.75	89
719	88
719.25	101
719.5	105
719.75	29
720	103